IESNA:LM-63-2002
[TEST] 
[TESTLAB] MODA LIGHT
[TESTDATE] 2015-10-13
[ISSUEDATE] 2015-10-24 17:29:44
[LAMPPOSITION] 0,0
[OTHER] EVERFINE GO-2000B_V1 SYSTEM
[MANUFAC] MODA LIGHT
[LUMCAT] SUPER NEON X DOME RGB
[LUMINAIRE] LED NEON RIBBION LIGHT
[LAMP] 5050
[OTHER] 
[OTHER] Gamma(deg)    Fz(lm)      Ft(lm)     %Lum    %Lamp
[OTHER]   0- 10         2.77        2.77     1.99     0.04
[OTHER]  10- 20         7.97       10.74     7.72     0.14
[OTHER]  20- 30        12.23       22.98    16.51     0.29
[OTHER]  30- 40        15.12       38.10    27.37     0.49
[OTHER]  40- 50        16.41       54.51    39.16     0.70
[OTHER]  50- 60        16.25       70.76    50.83     0.91
[OTHER]  60- 70        14.79       85.55    61.46     1.10
[OTHER]  70- 80        12.41       97.96    70.37     1.26
[OTHER]  80- 90         9.90      107.86    77.48     1.38
[OTHER]  90-100         7.99      115.85    83.22     1.49
[OTHER] 100-110         6.56      122.41    87.93     1.57
[OTHER] 110-120         5.26      127.67    91.72     1.64
[OTHER] 120-130         4.08      131.75    94.65     1.69
[OTHER] 130-140         3.03      134.77    96.82     1.73
[OTHER] 140-150         2.10      136.87    98.33     1.75
[OTHER] 150-160         1.35      138.22    99.29     1.77
[OTHER] 160-170         0.74      138.96    99.83     1.78
[OTHER] 170-180         0.24      139.20   100.00     1.78
[OTHER] 
TILT=NONE
60 130.0 1.000 37 37 1 2 1.000 0.011 0.029
1.000 1 9.5
0.0    5.0    10.0   15.0   20.0   25.0   30.0   35.0   40.0   45.0   
 50.0   55.0   60.0   65.0   70.0   75.0   80.0   85.0   90.0   95.0   
 100.0  105.0  110.0  115.0  120.0  125.0  130.0  135.0  140.0  145.0  
 150.0  155.0  160.0  165.0  170.0  175.0  180.0  
0.0    10.0   20.0   30.0   40.0   50.0   60.0   70.0   80.0   90.0   
 100.0  110.0  120.0  130.0  140.0  150.0  160.0  170.0  180.0  190.0  
 200.0  210.0  220.0  230.0  240.0  250.0  260.0  270.0  280.0  290.0  
 300.0  310.0  320.0  330.0  340.0  350.0  360.0  
29.27    28.96    28.46    27.77    26.92    26.03    24.97    23.78    22.60    21.49    
 20.37    19.20    18.00    16.79    15.59    14.43    13.32    12.27    11.29    10.38    
 9.57     8.83     8.17     7.58     7.07     6.60     6.18     5.77     5.29     4.79     
 4.47     3.96     3.52     1.94     1.80     1.62     1.71     
29.27    28.96    28.46    27.78    26.92    26.01    24.95    23.75    22.54    21.41    
 20.27    19.10    17.88    16.66    15.45    14.29    13.17    12.11    11.14    10.25    
 9.43     8.71     7.97     7.40     6.90     6.19     6.00     5.61     4.82     3.98     
 3.25     2.56     2.12     1.95     1.81     1.64     1.71     
29.27    28.96    28.45    27.75    26.89    25.93    24.86    23.63    22.34    21.14    
 19.96    18.75    17.52    16.27    15.04    13.87    12.75    11.69    10.71    9.83     
 9.03     8.27     7.35     7.08     6.61     5.99     5.15     4.47     3.86     3.23     
 2.76     2.33     2.10     1.95     1.88     2.01     1.71     
29.27    28.97    28.46    27.75    26.84    25.80    24.72    23.45    22.07    20.75    
 19.47    18.19    16.90    15.60    14.34    13.13    11.99    10.93    9.97     9.11     
 8.34     7.57     7.05     6.57     5.73     4.94     4.35     3.80     3.28     2.88     
 2.52     2.24     2.08     2.14     2.25     2.26     1.71     
29.27    28.98    28.49    27.76    26.84    25.74    24.55    23.25    21.80    20.28    
 18.85    17.46    16.09    14.71    13.37    12.11    10.93    9.86     8.91     8.10     
 7.32     6.74     6.29     5.21     4.66     4.14     3.75     3.28     2.90     2.60     
 2.34     2.20     2.29     2.34     2.38     2.44     1.71     
29.27    29.65    29.53    28.84    27.86    26.68    25.34    23.90    22.33    20.63    
 18.88    17.22    15.62    14.05    12.53    11.11    9.82     8.69     7.74     6.98     
 6.32     5.56     5.16     4.56     4.06     3.63     3.26     2.89     2.65     2.40     
 2.31     2.42     2.47     2.50     2.55     2.67     1.71     
29.27    29.45    29.39    29.37    28.92    27.79    26.33    24.69    22.91    21.06    
 19.08    17.01    15.06    13.18    11.39    9.75     8.29     7.08     6.14     5.46     
 4.83     4.58     4.18     3.72     3.36     2.99     2.75     2.57     2.38     2.29     
 2.40     2.51     2.58     2.64     2.61     2.91     1.71     
29.27    28.56    27.91    27.51    26.91    26.02    25.11    24.03    22.43    20.51    
 18.37    16.19    13.92    11.66    9.57     7.67     6.03     4.74     3.90     3.45     
 3.16     3.15     2.92     2.63     2.39     2.30     2.17     2.09     2.06     2.11     
 2.28     2.41     2.52     2.55     2.65     2.99     1.71     
29.27    28.82    28.12    27.20    26.03    24.66    23.26    21.74    20.00    18.19    
 16.30    14.44    12.54    10.34    7.94     5.68     3.77     2.40     1.73     1.57     
 1.67     1.74     1.69     1.58     1.58     1.61     1.66     1.70     1.74     1.89     
 2.05     2.14     2.24     2.52     2.75     2.91     1.71     
29.27    29.06    28.60    27.90    26.96    25.77    24.40    22.74    20.97    19.01    
 16.87    14.60    12.23    9.78     7.28     4.89     2.66     1.06     0.58     0.65     
 0.77     0.89     1.00     1.12     1.22     1.33     1.41     1.50     1.57     1.74     
 1.93     2.11     2.27     2.42     2.55     2.66     1.71     
29.27    29.10    28.69    28.03    27.13    25.99    24.63    23.05    21.30    19.38    
 17.29    15.06    12.74    10.36    7.98     5.73     3.80     2.45     1.80     1.62     
 1.80     1.97     1.81     1.70     1.67     1.69     1.73     1.77     1.79     1.93     
 2.09     2.25     2.39     2.53     2.65     2.72     1.71     
29.27    29.15    28.78    28.17    27.32    26.25    24.95    23.44    21.78    19.92    
 17.93    15.83    13.72    11.60    9.52     7.73     6.16     4.98     4.18     3.45     
 3.42     3.37     3.15     2.91     2.71     2.44     2.25     2.15     2.11     2.15     
 2.27     2.38     2.49     2.58     2.67     2.74     1.71     
29.27    29.19    28.88    28.33    27.53    26.52    25.30    23.88    22.30    20.59    
 18.83    16.95    15.02    13.27    11.62    10.08    8.71     7.56     6.43     5.48     
 5.22     5.03     4.44     3.95     3.60     3.31     3.05     2.69     2.45     2.33     
 2.44     2.51     2.57     2.63     2.68     2.73     1.71     
29.27    29.23    28.97    28.46    27.74    26.81    25.67    24.37    22.94    21.46    
 19.82    18.13    16.64    15.18    13.73    12.36    11.06    9.92     8.40     7.75     
 6.70     6.51     5.94     5.11     4.48     4.04     3.67     3.34     2.91     2.58     
 2.48     2.57     2.61     2.64     2.66     2.70     1.71     
29.27    29.27    29.05    28.61    27.94    27.08    26.04    24.89    23.65    22.25    
 20.79    19.51    18.26    16.96    15.63    14.34    13.11    11.79    10.18    9.56     
 8.29     7.75     7.39     6.44     5.46     4.74     4.24     3.82     3.42     2.93     
 2.59     2.45     2.53     2.55     2.58     2.63     1.71     
29.27    29.30    29.12    28.72    28.11    27.31    26.38    25.40    24.23    22.96    
 21.84    20.77    19.65    18.46    17.22    15.99    14.76    12.35    11.79    11.06    
 10.04    8.35     8.27     7.80     6.66     5.63     4.84     4.30     3.82     3.37     
 2.79     2.49     2.28     2.33     2.41     2.50     1.71     
29.27    29.33    29.17    28.81    28.25    27.51    26.69    25.79    24.69    23.59    
 22.69    21.74    20.71    19.58    18.39    17.18    14.92    13.60    13.07    12.17    
 10.96    10.18    8.71     7.96     7.75     6.87     5.77     4.84     4.23     3.72     
 3.10     2.56     2.31     2.10     2.01     2.20     1.71     
29.27    29.34    29.21    28.86    28.33    27.63    26.89    26.01    24.97    24.02    
 23.22    22.32    21.32    20.19    18.82    16.66    14.89    14.78    13.82    12.83    
 11.87    10.64    9.80     9.03     7.44     7.44     7.04     6.28     5.07     4.33     
 3.62     2.79     2.34     2.12     1.93     1.80     1.71     
29.27    29.36    29.23    28.89    28.37    27.70    26.99    26.12    25.11    24.22    
 23.45    22.57    21.36    20.00    18.28    15.91    16.17    15.23    14.15    13.09    
 12.08    11.13    10.24    9.42     8.38     7.71     7.08     6.03     5.21     5.34     
 5.02     4.56     2.67     2.13     1.91     1.79     1.71     
29.27    29.35    29.21    28.86    28.34    27.66    26.94    26.06    25.04    24.12    
 23.24    21.84    20.61    18.05    17.75    17.42    16.34    15.21    14.09    12.99    
 11.96    11.00    10.13    9.31     8.59     7.92     7.32     6.76     6.22     5.39     
 4.50     4.03     3.48     3.27     2.53     2.31     1.71     
29.27    29.33    29.19    28.84    28.28    27.56    26.78    25.88    24.65    23.06    
 21.47    19.84    19.37    19.15    18.11    16.96    15.79    14.61    13.49    12.40    
 11.38    10.45    9.59     8.82     8.13     7.51     6.96     6.45     5.96     5.47     
 4.78     4.22     3.74     3.35     2.97     2.68     1.71     
29.27    29.33    29.17    28.79    28.20    27.20    25.65    23.57    22.35    21.04    
 21.25    20.56    19.53    18.37    17.16    15.93    14.70    13.52    12.41    11.37    
 10.41    9.53     8.74     8.05     7.44     6.90     6.42     5.97     5.54     5.12     
 4.50     4.06     3.69     3.33     3.00     2.78     1.71     
29.27    29.19    28.46    27.15    25.81    25.05    23.89    23.85    23.29    22.11    
 20.75    19.54    18.31    17.03    15.71    14.40    13.13    11.93    10.84    9.86     
 8.99     8.23     7.57     6.99     6.50     6.07     5.69     5.32     4.97     4.49     
 4.05     3.74     3.42     3.17     2.92     2.75     1.71     
29.27    28.61    28.11    27.39    26.39    26.28    26.11    25.07    23.81    22.33    
 20.69    19.00    17.50    15.99    14.49    13.01    11.61    10.36    9.25     8.32     
 7.54     6.90     6.38     5.95     5.61     5.31     5.04     4.77     4.40     3.99     
 3.75     3.49     3.28     3.10     2.94     2.80     1.71     
29.27    28.72    28.67    29.02    29.01    28.33    27.27    25.88    24.27    22.53    
 20.70    18.68    16.65    14.76    12.95    11.23    9.66     8.28     7.17     6.32     
 5.69     5.25     4.94     4.71     4.54     4.38     4.23     3.89     3.66     3.50     
 3.33     3.21     3.10     2.99     2.91     2.85     1.71     
29.27    29.79    29.87    29.65    29.06    28.14    26.88    25.41    23.70    21.80    
 19.75    17.55    15.35    13.05    10.79    8.82     7.00     5.50     4.43     3.77     
 3.41     3.25     3.20     3.20     3.20     3.03     2.90     2.86     2.79     2.80     
 2.77     2.74     2.72     2.71     2.76     2.74     1.71     
29.27    29.38    29.21    28.73    27.97    26.95    25.70    24.21    22.50    20.62    
 18.57    16.31    14.00    11.54    9.04     6.68     4.49     2.81     1.77     1.40     
 1.41     1.54     1.58     1.53     1.50     1.60     1.70     1.78     1.87     1.95     
 2.01     2.15     2.31     2.45     2.52     2.68     1.71     
29.27    29.22    28.91    28.34    27.52    26.45    25.15    23.64    21.91    20.00    
 17.93    15.70    13.35    10.91    8.42     5.93     3.55     1.54     0.30     0.24     
 0.32     0.45     0.60     0.76     0.91     1.06     1.18     1.31     1.41     1.58     
 1.80     2.00     2.19     2.37     2.53     2.66     1.71     
29.27    29.18    28.83    28.22    27.37    26.28    24.96    23.43    21.69    19.80    
 17.73    15.55    13.31    10.91    8.57     6.29     4.18     2.52     1.47     1.12     
 1.13     1.22     1.27     1.29     1.27     1.37     1.46     1.56     1.62     1.66     
 1.82     2.09     2.30     2.45     2.54     2.62     1.71     
29.27    29.14    28.75    28.12    27.24    26.14    24.82    23.30    21.60    19.76    
 17.81    15.78    13.67    11.53    9.48     7.62     5.91     4.52     3.52     2.91     
 2.60     2.49     2.49     2.53     2.49     2.48     2.43     2.36     2.34     2.35     
 2.36     2.37     2.30     2.47     2.68     2.68     1.71     
29.27    29.09    28.68    28.02    27.15    26.04    24.74    23.26    21.67    19.98    
 18.14    16.26    14.39    12.63    10.91    9.31     7.83     6.57     5.56     4.81     
 4.30     3.96     3.75     3.63     3.55     3.46     3.34     3.21     3.08     2.97     
 2.81     2.72     2.66     2.55     2.65     2.78     1.71     
29.27    29.06    28.62    27.94    27.05    25.97    24.72    23.38    21.88    20.25    
 18.57    16.95    15.38    13.83    12.31    10.87    9.54     8.37     7.36     6.54     
 5.88     5.38     5.01     4.73     4.51     4.34     4.18     3.95     3.73     3.50     
 3.30     3.07     2.90     2.78     2.60     2.82     1.71     
29.27    29.02    28.55    27.87    27.00    25.94    24.81    23.52    22.07    20.56    
 19.13    17.72    16.33    14.91    13.51    12.20    10.97    9.84     8.83     7.96     
 7.23     6.62     6.12     5.72     5.38     5.09     4.84     4.61     4.30     3.99     
 3.68     3.41     3.13     2.92     2.73     2.81     1.71     
29.27    29.00    28.51    27.82    26.96    25.96    24.89    23.63    22.25    20.95    
 19.66    18.37    17.06    15.73    14.44    13.20    12.01    10.92    9.93     9.04     
 8.25     7.58     7.01     6.52     6.10     5.73     5.39     5.09     4.77     4.42     
 4.01     3.66     3.35     3.04     2.80     2.74     1.71     
29.27    28.98    28.48    27.79    26.93    26.01    24.95    23.73    22.46    21.27    
 20.08    18.86    17.61    16.35    15.11    13.91    12.77    11.69    10.69    9.79     
 8.99     8.27     7.64     7.10     6.62     6.20     5.81     5.45     5.11     4.70     
 4.29     3.86     3.49     3.14     2.80     2.58     1.71     
29.27    28.97    28.45    27.77    26.92    26.03    24.97    23.77    22.57    21.44    
 20.31    19.12    17.90    16.68    15.47    14.30    13.17    12.11    11.13    10.23    
 9.41     8.67     8.03     7.46     6.95     6.49     6.07     5.68     5.30     4.87     
 4.45     3.97     3.56     3.12     2.65     2.25     1.71     
29.27    28.96    28.46    27.77    26.92    26.03    24.97    23.78    22.60    21.49    
 20.37    19.20    18.00    16.79    15.59    14.43    13.32    12.27    11.29    10.38    
 9.57     8.83     8.17     7.58     7.07     6.60     6.18     5.77     5.29     4.79     
 4.47     3.96     3.52     1.94     1.80     1.62     1.71     
